##TITLE= Gd002
##JCAMP-DX= 4.24
##DATA TYPE= UV/VIS SPECTRUM
##ORIGIN= 
##OWNER= U-3300 user
##DATE= 11:36:13, 12/26/2022
##SAMPLE DESCRIPTION= 
##SPECTROMETER/DATA SYSTEM= Hitachi Model U-3300形分光光度計;
ｼﾘｱﾙ No.: 1146-001;
ROM Ver.: 2520 10;
##INSTRUMENT PARAMETERS= ｽｷｬﾝｽﾋﾟｰﾄﾞ= 120 nm/min;
ｽﾘｯﾄ= 4 nm;
ﾎﾄﾏﾙ電圧= 自動制御;
光源切換= 340.00 nm;
ﾍﾞｰｽﾗｲﾝ設定= ﾕｰｻﾞ 1;
高分解能測定= Off;
##DELTAX= -1.00
##PATH_LENGTH= 10.0mm
##XLABEL= nm
##YLABEL= %T
##XUNITS= NANOMETERS
##YUNITS= % TRANSMITTANCE
##XFACTOR= 1.0
##YFACTOR= 1.0
##FIRSTX= 600.00
##LASTX= 200.00
##NPOINTS= 401
##XYDATA= (X++(Y..Y))
600.00 100.6
599.00 100.6
598.00 100.6
597.00 100.6
596.00 100.6
595.00 100.6
594.00 100.6
593.00 100.6
592.00 100.6
591.00 100.6
590.00 100.6
589.00 100.6
588.00 100.6
587.00 100.6
586.00 100.6
585.00 100.6
584.00 100.6
583.00 100.6
582.00 100.6
581.00 100.6
580.00 100.6
579.00 100.6
578.00 100.6
577.00 100.6
576.00 100.6
575.00 100.6
574.00 100.6
573.00 100.6
572.00 100.6
571.00 100.6
570.00 100.6
569.00 100.6
568.00 100.6
567.00 100.6
566.00 100.6
565.00 100.6
564.00 100.6
563.00 100.6
562.00 100.6
561.00 100.6
560.00 100.6
559.00 100.6
558.00 100.6
557.00 100.6
556.00 100.6
555.00 100.6
554.00 100.6
553.00 100.6
552.00 100.6
551.00 100.6
550.00 100.6
549.00 100.6
548.00 100.6
547.00 100.6
546.00 100.6
545.00 100.6
544.00 100.6
543.00 100.6
542.00 100.6
541.00 100.6
540.00 100.6
539.00 100.6
538.00 100.6
537.00 100.6
536.00 100.6
535.00 100.6
534.00 100.6
533.00 100.6
532.00 100.6
531.00 100.6
530.00 100.6
529.00 100.6
528.00 100.6
527.00 100.6
526.00 100.6
525.00 100.6
524.00 100.6
523.00 100.6
522.00 100.6
521.00 100.6
520.00 100.6
519.00 100.6
518.00 100.6
517.00 100.6
516.00 100.6
515.00 100.6
514.00 100.6
513.00 100.6
512.00 100.6
511.00 100.6
510.00 100.6
509.00 100.6
508.00 100.6
507.00 100.6
506.00 100.6
505.00 100.6
504.00 100.6
503.00 100.6
502.00 100.6
501.00 100.6
500.00 100.6
499.00 100.6
498.00 100.6
497.00 100.6
496.00 100.6
495.00 100.6
494.00 100.5
493.00 100.5
492.00 100.5
491.00 100.5
490.00 100.5
489.00 100.5
488.00 100.5
487.00 100.5
486.00 100.5
485.00 100.5
484.00 100.5
483.00 100.5
482.00 100.5
481.00 100.5
480.00 100.5
479.00 100.5
478.00 100.5
477.00 100.5
476.00 100.5
475.00 100.5
474.00 100.5
473.00 100.5
472.00 100.5
471.00 100.5
470.00 100.5
469.00 100.5
468.00 100.5
467.00 100.5
466.00 100.5
465.00 100.5
464.00 100.5
463.00 100.5
462.00 100.5
461.00 100.5
460.00 100.5
459.00 100.5
458.00 100.5
457.00 100.5
456.00 100.5
455.00 100.6
454.00 100.6
453.00 100.6
452.00 100.6
451.00 100.5
450.00 100.5
449.00 100.5
448.00 100.4
447.00 100.4
446.00 100.4
445.00 100.4
444.00 100.4
443.00 100.4
442.00 100.4
441.00 100.4
440.00 100.4
439.00 100.4
438.00 100.4
437.00 100.4
436.00 100.4
435.00 100.4
434.00 100.4
433.00 100.4
432.00 100.4
431.00 100.4
430.00 100.4
429.00 100.4
428.00 100.4
427.00 100.4
426.00 100.4
425.00 100.4
424.00 100.4
423.00 100.4
422.00 100.4
421.00 100.4
420.00 100.4
419.00 100.4
418.00 100.4
417.00 100.4
416.00 100.4
415.00 100.4
414.00 100.4
413.00 100.5
412.00 100.5
411.00 100.5
410.00 100.4
409.00 100.4
408.00 100.4
407.00 100.4
406.00 100.4
405.00 100.4
404.00 100.4
403.00 100.4
402.00 100.4
401.00 100.4
400.00 100.4
399.00 100.4
398.00 100.4
397.00 100.4
396.00 100.4
395.00 100.4
394.00 100.4
393.00 100.4
392.00 100.4
391.00 100.4
390.00 100.4
389.00 100.4
388.00 100.4
387.00 100.4
386.00 100.4
385.00 100.4
384.00 100.4
383.00 100.4
382.00 100.4
381.00 100.5
380.00 100.5
379.00 100.5
378.00 100.5
377.00 100.5
376.00 100.5
375.00 100.5
374.00 100.5
373.00 100.5
372.00 100.5
371.00 100.5
370.00 100.5
369.00 100.5
368.00 100.5
367.00 100.5
366.00 100.5
365.00 100.5
364.00 100.5
363.00 100.5
362.00 100.5
361.00 100.5
360.00 100.5
359.00 100.5
358.00 100.5
357.00 100.5
356.00 100.5
355.00 100.5
354.00 100.5
353.00 100.5
352.00 100.5
351.00 100.5
350.00 100.5
349.00 100.5
348.00 100.5
347.00 100.5
346.00 100.5
345.00 100.5
344.00 100.5
343.00 100.5
342.00 100.5
341.00 100.6
340.00 100.6
339.00 100.6
338.00 100.6
337.00 100.6
336.00 100.6
335.00 100.6
334.00 100.6
333.00 100.6
332.00 100.6
331.00 100.6
330.00 100.6
329.00 100.6
328.00 100.5
327.00 100.5
326.00 100.5
325.00 100.5
324.00 100.5
323.00 100.5
322.00 100.5
321.00 100.5
320.00 100.5
319.00 100.5
318.00 100.5
317.00 100.5
316.00 100.5
315.00 100.5
314.00 100.5
313.00 100.5
312.00 100.5
311.00 100.5
310.00 100.5
309.00 100.5
308.00 100.5
307.00 100.5
306.00 100.5
305.00 100.5
304.00 100.5
303.00 100.5
302.00 100.5
301.00 100.5
300.00 100.5
299.00 100.5
298.00 100.5
297.00 100.5
296.00 100.5
295.00 100.5
294.00 100.5
293.00 100.5
292.00 100.5
291.00 100.5
290.00 100.5
289.00 100.5
288.00 100.5
287.00 100.5
286.00 100.5
285.00 100.5
284.00 100.5
283.00 100.5
282.00 100.5
281.00 100.5
280.00 100.5
279.00 100.5
278.00 100.4
277.00 100.4
276.00 100.3
275.00 100.2
274.00 100.2
273.00 100.2
272.00 100.3
271.00 100.4
270.00 100.4
269.00 100.5
268.00 100.5
267.00 100.5
266.00 100.5
265.00 100.5
264.00 100.5
263.00 100.5
262.00 100.5
261.00 100.6
260.00 100.6
259.00 100.6
258.00 100.6
257.00 100.6
256.00 100.6
255.00 100.6
254.00 100.6
253.00 100.6
252.00 100.7
251.00 100.7
250.00 100.7
249.00 100.7
248.00 100.7
247.00 100.7
246.00 100.7
245.00 100.7
244.00 100.7
243.00 100.7
242.00 100.7
241.00 100.6
240.00 100.6
239.00 100.6
238.00 100.6
237.00 100.6
236.00 100.6
235.00 100.6
234.00 100.6
233.00 100.6
232.00 100.6
231.00 100.6
230.00 100.6
229.00 100.6
228.00 100.7
227.00 100.7
226.00 100.7
225.00 100.7
224.00 100.7
223.00 100.7
222.00 100.7
221.00 100.7
220.00 100.7
219.00 100.7
218.00 100.8
217.00 100.8
216.00 100.8
215.00 100.8
214.00 100.8
213.00 100.8
212.00 100.8
211.00 100.8
210.00 100.8
209.00 100.8
208.00 100.8
207.00 100.8
206.00 100.8
205.00 100.8
204.00 100.8
203.00 100.7
202.00 100.6
201.00 100.4
200.00 100.3
##END=
