##TITLE= pure water
##JCAMP-DX= 4.24
##DATA TYPE= UV/VIS SPECTRUM
##ORIGIN= 
##OWNER= U-3300 user
##DATE= 11:30:47, 12/26/2022
##SAMPLE DESCRIPTION= 
##SPECTROMETER/DATA SYSTEM= Hitachi Model U-3300形分光光度計;
ｼﾘｱﾙ No.: 1146-001;
ROM Ver.: 2520 10;
##INSTRUMENT PARAMETERS= ｽｷｬﾝｽﾋﾟｰﾄﾞ= 120 nm/min;
ｽﾘｯﾄ= 4 nm;
ﾎﾄﾏﾙ電圧= 自動制御;
光源切換= 340.00 nm;
ﾍﾞｰｽﾗｲﾝ設定= ﾕｰｻﾞ 1;
高分解能測定= Off;
##DELTAX= -1.00
##PATH_LENGTH= 10.0mm
##XLABEL= nm
##YLABEL= %T
##XUNITS= NANOMETERS
##YUNITS= % TRANSMITTANCE
##XFACTOR= 1.0
##YFACTOR= 1.0
##FIRSTX= 600.00
##LASTX= 200.00
##NPOINTS= 401
##XYDATA= (X++(Y..Y))
600.00 100.1
599.00 100.1
598.00 100.1
597.00 100.1
596.00 100.1
595.00 100.1
594.00 100.1
593.00 100.1
592.00 100.1
591.00 100.1
590.00 100.1
589.00 100.1
588.00 100.1
587.00 100.1
586.00 100.1
585.00 100.1
584.00 100.1
583.00 100.1
582.00 100.1
581.00 100.1
580.00 100.1
579.00 100.1
578.00 100.1
577.00 100.1
576.00 100.1
575.00 100.1
574.00 100.1
573.00 100.1
572.00 100.1
571.00 100.1
570.00 100.1
569.00 100.1
568.00 100.1
567.00 100.1
566.00 100.1
565.00 100.1
564.00 100.1
563.00 100.1
562.00 100.1
561.00 100.1
560.00 100.1
559.00 100.1
558.00 100.1
557.00 100.1
556.00 100.1
555.00 100.1
554.00 100.1
553.00 100.1
552.00 100.1
551.00 100.1
550.00 100.1
549.00 100.1
548.00 100.1
547.00 100.1
546.00 100.1
545.00 100.1
544.00 100.1
543.00 100.1
542.00 100.1
541.00 100.1
540.00 100.1
539.00 100.1
538.00 100.1
537.00 100.1
536.00 100.1
535.00 100.1
534.00 100.1
533.00 100.1
532.00 100.1
531.00 100.1
530.00 100.1
529.00 100.1
528.00 100.1
527.00 100.1
526.00 100.1
525.00 100.1
524.00 100.1
523.00 100.1
522.00 100.1
521.00 100.1
520.00 100.1
519.00 100.1
518.00 100.1
517.00 100.1
516.00 100.1
515.00 100.1
514.00 100.1
513.00 100.1
512.00 100.1
511.00 100.1
510.00 100.1
509.00 100.1
508.00 100.1
507.00 100.1
506.00 100.1
505.00 100.1
504.00 100.1
503.00 100.1
502.00 100.1
501.00 100.1
500.00 100.1
499.00 100.1
498.00 100.1
497.00 100.1
496.00 100.1
495.00 100.1
494.00 100.0
493.00 100.0
492.00 100.1
491.00 100.1
490.00 100.1
489.00 100.0
488.00 100.1
487.00 100.1
486.00 100.1
485.00 100.1
484.00 100.1
483.00 100.1
482.00 100.1
481.00 100.1
480.00 100.1
479.00 100.1
478.00 100.1
477.00 100.1
476.00 100.1
475.00 100.0
474.00 100.0
473.00 100.0
472.00 100.0
471.00 100.0
470.00 100.0
469.00 100.0
468.00 100.0
467.00 100.0
466.00 100.0
465.00 100.0
464.00 100.0
463.00 100.0
462.00 100.0
461.00 100.0
460.00 100.0
459.00 100.0
458.00 100.0
457.00 100.0
456.00 100.0
455.00 100.1
454.00 100.1
453.00 100.1
452.00 100.1
451.00 100.1
450.00 100.1
449.00 100.1
448.00 100.1
447.00 100.1
446.00 100.1
445.00 100.1
444.00 100.1
443.00 100.1
442.00 100.1
441.00 100.1
440.00 100.1
439.00 100.1
438.00 100.1
437.00 100.1
436.00 100.1
435.00 100.1
434.00 100.1
433.00 100.1
432.00 100.1
431.00 100.1
430.00 100.1
429.00 100.1
428.00 100.1
427.00 100.1
426.00 100.0
425.00 100.0
424.00 100.0
423.00 100.0
422.00 100.0
421.00 100.0
420.00 100.0
419.00 100.0
418.00 100.0
417.00 100.0
416.00 100.0
415.00 100.0
414.00 100.0
413.00 100.0
412.00 100.0
411.00 100.1
410.00 100.0
409.00 100.1
408.00 100.1
407.00 100.0
406.00 100.0
405.00 100.0
404.00 100.0
403.00 100.0
402.00 100.0
401.00 100.0
400.00 100.0
399.00 100.0
398.00 100.0
397.00 100.0
396.00 100.0
395.00 100.0
394.00 100.0
393.00 100.0
392.00 100.0
391.00 100.0
390.00 100.0
389.00 100.0
388.00 100.0
387.00 100.0
386.00 100.0
385.00 100.0
384.00 100.0
383.00 100.0
382.00 100.0
381.00 100.0
380.00 100.0
379.00 100.0
378.00 100.0
377.00 100.0
376.00 100.1
375.00 100.1
374.00 100.1
373.00 100.0
372.00 100.0
371.00 100.0
370.00 100.0
369.00 100.0
368.00 100.0
367.00 100.0
366.00 100.1
365.00 100.1
364.00 100.1
363.00 100.1
362.00 100.1
361.00 100.1
360.00 100.1
359.00 100.0
358.00 100.0
357.00 100.0
356.00 100.0
355.00 100.0
354.00 100.0
353.00 100.0
352.00 100.0
351.00 100.0
350.00 100.0
349.00 100.0
348.00 100.0
347.00 100.0
346.00 100.1
345.00 100.1
344.00 100.1
343.00 100.1
342.00 100.1
341.00 100.1
340.00 100.1
339.00 100.1
338.00 100.1
337.00 100.1
336.00 100.1
335.00 100.1
334.00 100.1
333.00 100.1
332.00 100.1
331.00 100.1
330.00 100.1
329.00 100.1
328.00 100.1
327.00 100.1
326.00 100.1
325.00 100.1
324.00 100.0
323.00 100.0
322.00 100.0
321.00 100.0
320.00 100.0
319.00 100.0
318.00 100.0
317.00 100.0
316.00 100.0
315.00 100.0
314.00 100.1
313.00 100.0
312.00 100.1
311.00 100.0
310.00 100.0
309.00 100.0
308.00 100.0
307.00 100.0
306.00 100.0
305.00 100.0
304.00 100.0
303.00 100.0
302.00 100.0
301.00 100.0
300.00 100.1
299.00 100.1
298.00 100.1
297.00 100.0
296.00 100.0
295.00 100.0
294.00 100.0
293.00 100.0
292.00 100.0
291.00 100.0
290.00 100.0
289.00 100.0
288.00 100.1
287.00 100.1
286.00 100.1
285.00 100.1
284.00 100.1
283.00 100.1
282.00 100.1
281.00 100.1
280.00 100.0
279.00 100.1
278.00 100.1
277.00 100.1
276.00 100.1
275.00 100.1
274.00 100.1
273.00 100.1
272.00 100.1
271.00 100.1
270.00 100.0
269.00 100.0
268.00 100.0
267.00 100.0
266.00 100.0
265.00 100.1
264.00 100.1
263.00 100.1
262.00 100.1
261.00 100.1
260.00 100.1
259.00 100.1
258.00 100.1
257.00 100.1
256.00 100.1
255.00 100.1
254.00 100.1
253.00 100.1
252.00 100.1
251.00 100.1
250.00 100.1
249.00 100.1
248.00 100.1
247.00 100.1
246.00 100.1
245.00 100.1
244.00 100.1
243.00 100.1
242.00 100.1
241.00 100.1
240.00 100.1
239.00 100.1
238.00 100.1
237.00 100.1
236.00 100.0
235.00 100.0
234.00 100.0
233.00 100.0
232.00 100.0
231.00 100.0
230.00 100.0
229.00 100.0
228.00 100.1
227.00 100.1
226.00 100.1
225.00 100.1
224.00 100.1
223.00 100.1
222.00 100.1
221.00 100.1
220.00 100.1
219.00 100.1
218.00 100.1
217.00 100.1
216.00 100.1
215.00 100.1
214.00 100.1
213.00 100.1
212.00 100.1
211.00 100.1
210.00 100.1
209.00 100.1
208.00 100.1
207.00 100.0
206.00 100.0
205.00 100.0
204.00 100.0
203.00 100.0
202.00 100.0
201.00 100.0
200.00 100.0
##END=
