Wavelength	T
600.00	101.8
599.00	101.8
598.00	101.8
597.00	101.8
596.00	101.8
595.00	101.8
594.00	101.8
593.00	101.8
592.00	101.8
591.00	101.8
590.00	101.7
589.00	101.7
588.00	101.7
587.00	101.7
586.00	101.7
585.00	101.7
584.00	101.7
583.00	101.7
582.00	101.7
581.00	101.7
580.00	101.8
579.00	101.8
578.00	101.8
577.00	101.8
576.00	101.8
575.00	101.8
574.00	101.8
573.00	101.8
572.00	101.8
571.00	101.8
570.00	101.8
569.00	101.8
568.00	101.8
567.00	101.8
566.00	101.7
565.00	101.7
564.00	101.7
563.00	101.7
562.00	101.7
561.00	101.7
560.00	101.7
559.00	101.7
558.00	101.7
557.00	101.7
556.00	101.7
555.00	101.7
554.00	101.7
553.00	101.7
552.00	101.7
551.00	101.7
550.00	101.7
549.00	101.7
548.00	101.7
547.00	101.7
546.00	101.7
545.00	101.7
544.00	101.7
543.00	101.7
542.00	101.7
541.00	101.7
540.00	101.8
539.00	101.8
538.00	101.8
537.00	101.8
536.00	101.8
535.00	101.8
534.00	101.8
533.00	101.8
532.00	101.8
531.00	101.8
530.00	101.8
529.00	101.8
528.00	101.8
527.00	101.8
526.00	101.8
525.00	101.8
524.00	101.8
523.00	101.7
522.00	101.7
521.00	101.7
520.00	101.7
519.00	101.7
518.00	101.7
517.00	101.7
516.00	101.7
515.00	101.7
514.00	101.7
513.00	101.7
512.00	101.7
511.00	101.7
510.00	101.7
509.00	101.7
508.00	101.8
507.00	101.8
506.00	101.8
505.00	101.7
504.00	101.7
503.00	101.7
502.00	101.7
501.00	101.7
500.00	101.7
499.00	101.7
498.00	101.7
497.00	101.7
496.00	101.6
495.00	101.6
494.00	101.6
493.00	101.6
492.00	101.7
491.00	101.6
490.00	101.7
489.00	101.7
488.00	101.7
487.00	101.6
486.00	101.6
485.00	101.6
484.00	101.6
483.00	101.6
482.00	101.6
481.00	101.6
480.00	101.6
479.00	101.6
478.00	101.6
477.00	101.6
476.00	101.6
475.00	101.6
474.00	101.6
473.00	101.6
472.00	101.6
471.00	101.6
470.00	101.6
469.00	101.6
468.00	101.6
467.00	101.6
466.00	101.6
465.00	101.6
464.00	101.6
463.00	101.6
462.00	101.6
461.00	101.6
460.00	101.5
459.00	101.5
458.00	101.5
457.00	101.5
456.00	101.5
455.00	101.5
454.00	101.5
453.00	101.5
452.00	101.5
451.00	101.5
450.00	101.4
449.00	101.4
448.00	101.4
447.00	101.3
446.00	101.3
445.00	101.3
444.00	101.3
443.00	101.3
442.00	101.3
441.00	101.3
440.00	101.3
439.00	101.3
438.00	101.3
437.00	101.3
436.00	101.3
435.00	101.3
434.00	101.3
433.00	101.3
432.00	101.3
431.00	101.3
430.00	101.2
429.00	101.2
428.00	101.2
427.00	101.2
426.00	101.2
425.00	101.2
424.00	101.2
423.00	101.2
422.00	101.2
421.00	101.2
420.00	101.2
419.00	101.2
418.00	101.2
417.00	101.2
416.00	101.2
415.00	101.2
414.00	101.2
413.00	101.2
412.00	101.2
411.00	101.2
410.00	101.2
409.00	101.2
408.00	101.2
407.00	101.2
406.00	101.2
405.00	101.2
404.00	101.2
403.00	101.2
402.00	101.2
401.00	101.2
400.00	101.2
399.00	101.2
398.00	101.2
397.00	101.2
396.00	101.2
395.00	101.2
394.00	101.1
393.00	101.1
392.00	101.1
391.00	101.1
390.00	101.1
389.00	101.1
388.00	101.1
387.00	101.1
386.00	101.1
385.00	101.1
384.00	101.1
383.00	101.1
382.00	101.1
381.00	101.1
380.00	101.1
379.00	101.2
378.00	101.2
377.00	101.2
376.00	101.2
375.00	101.2
374.00	101.2
373.00	101.2
372.00	101.2
371.00	101.1
370.00	101.1
369.00	101.1
368.00	101.1
367.00	101.1
366.00	101.1
365.00	101.1
364.00	101.1
363.00	101.1
362.00	101.1
361.00	101.1
360.00	101.1
359.00	101.1
358.00	101.1
357.00	101.1
356.00	101.1
355.00	101.1
354.00	101.1
353.00	101.1
352.00	101.1
351.00	101.1
350.00	101.1
349.00	101.1
348.00	101.0
347.00	101.0
346.00	101.0
345.00	101.0
344.00	101.0
343.00	101.0
342.00	101.0
341.00	101.0
340.00	100.9
339.00	100.9
338.00	100.8
337.00	100.8
336.00	100.7
335.00	100.7
334.00	100.7
333.00	100.7
332.00	100.7
331.00	100.7
330.00	100.7
329.00	100.7
328.00	100.7
327.00	100.7
326.00	100.7
325.00	100.7
324.00	100.7
323.00	100.7
322.00	100.7
321.00	100.7
320.00	100.7
319.00	100.7
318.00	100.7
317.00	100.7
316.00	100.7
315.00	100.7
314.00	100.7
313.00	100.6
312.00	100.6
311.00	100.6
310.00	100.6
309.00	100.6
308.00	100.6
307.00	100.6
306.00	100.6
305.00	100.6
304.00	100.6
303.00	100.6
302.00	100.6
301.00	100.6
300.00	100.6
299.00	100.5
298.00	100.5
297.00	100.5
296.00	100.5
295.00	100.5
294.00	100.5
293.00	100.5
292.00	100.5
291.00	100.5
290.00	100.5
289.00	100.5
288.00	100.5
287.00	100.5
286.00	100.5
285.00	100.5
284.00	100.5
283.00	100.5
282.00	100.5
281.00	100.5
280.00	100.4
279.00	100.4
278.00	100.4
277.00	100.3
276.00	100.2
275.00	100.2
274.00	100.2
273.00	100.2
272.00	100.2
271.00	100.3
270.00	100.3
269.00	100.4
268.00	100.4
267.00	100.4
266.00	100.4
265.00	100.4
264.00	100.4
263.00	100.4
262.00	100.4
261.00	100.4
260.00	100.4
259.00	100.4
258.00	100.4
257.00	100.4
256.00	100.4
255.00	100.4
254.00	100.4
253.00	100.4
252.00	100.4
251.00	100.4
250.00	100.4
249.00	100.4
248.00	100.5
247.00	100.5
246.00	100.5
245.00	100.5
244.00	100.5
243.00	100.5
242.00	100.5
241.00	100.5
240.00	100.5
239.00	100.5
238.00	100.5
237.00	100.5
236.00	100.5
235.00	100.5
234.00	100.5
233.00	100.5
232.00	100.5
231.00	100.4
230.00	100.4
229.00	100.4
228.00	100.4
227.00	100.3
226.00	100.3
225.00	100.3
224.00	100.2
223.00	100.2
222.00	100.1
221.00	100.1
220.00	100.0
219.00	99.9
218.00	99.9
217.00	99.8
216.00	99.8
215.00	99.7
214.00	99.7
213.00	99.6
212.00	99.6
211.00	99.6
210.00	99.6
209.00	99.5
208.00	99.5
207.00	99.5
206.00	99.4
205.00	99.4
204.00	99.3
203.00	99.2
202.00	99.1
201.00	99.0
200.00	98.9

