##TITLE= copper in gd
##JCAMP-DX= 4.24
##DATA TYPE= UV/VIS SPECTRUM
##ORIGIN= 
##OWNER= U-3300 user
##DATE= 14:35:47, 11/28/2022
##SAMPLE DESCRIPTION= 
##SPECTROMETER/DATA SYSTEM= Hitachi Model U-3300形分光光度計;
ｼﾘｱﾙ No.: 1146-001;
ROM Ver.: 2520 10;
##INSTRUMENT PARAMETERS= ｽｷｬﾝｽﾋﾟｰﾄﾞ= 120 nm/min;
ｽﾘｯﾄ= 4 nm;
ﾎﾄﾏﾙ電圧= 自動制御;
光源切換= 340.00 nm;
ﾍﾞｰｽﾗｲﾝ設定= ﾕｰｻﾞ 1;
高分解能測定= Off;
##DELTAX= -1.00
##PATH_LENGTH= 10.0mm
##XLABEL= nm
##YLABEL= %T
##XUNITS= NANOMETERS
##YUNITS= % TRANSMITTANCE
##XFACTOR= 1.0
##YFACTOR= 1.0
##FIRSTX= 800.00
##LASTX= 200.00
##NPOINTS= 601
##XYDATA= (X++(Y..Y))
800.00 99.0
799.00 99.0
798.00 99.0
797.00 99.0
796.00 99.0
795.00 99.0
794.00 99.0
793.00 99.0
792.00 99.0
791.00 99.0
790.00 99.0
789.00 99.0
788.00 99.0
787.00 99.0
786.00 99.0
785.00 99.0
784.00 99.0
783.00 99.0
782.00 99.0
781.00 99.0
780.00 99.0
779.00 99.0
778.00 99.0
777.00 99.1
776.00 99.0
775.00 99.1
774.00 99.0
773.00 99.0
772.00 99.0
771.00 99.0
770.00 99.1
769.00 99.1
768.00 99.1
767.00 99.1
766.00 99.1
765.00 99.1
764.00 99.1
763.00 99.1
762.00 99.1
761.00 99.1
760.00 99.0
759.00 99.0
758.00 99.0
757.00 99.0
756.00 99.0
755.00 99.0
754.00 99.0
753.00 99.0
752.00 99.0
751.00 99.0
750.00 99.0
749.00 99.0
748.00 99.1
747.00 99.1
746.00 99.1
745.00 99.1
744.00 99.1
743.00 99.0
742.00 99.0
741.00 99.0
740.00 99.0
739.00 99.0
738.00 99.0
737.00 99.0
736.00 99.0
735.00 99.0
734.00 99.0
733.00 99.0
732.00 99.0
731.00 99.0
730.00 99.0
729.00 99.0
728.00 99.0
727.00 99.0
726.00 99.0
725.00 99.0
724.00 99.0
723.00 99.0
722.00 99.0
721.00 99.0
720.00 99.0
719.00 99.0
718.00 99.0
717.00 99.0
716.00 99.0
715.00 99.0
714.00 99.0
713.00 99.0
712.00 99.0
711.00 99.0
710.00 99.0
709.00 99.0
708.00 99.0
707.00 99.0
706.00 99.0
705.00 99.0
704.00 99.0
703.00 99.0
702.00 99.0
701.00 99.0
700.00 99.0
699.00 99.0
698.00 99.0
697.00 99.0
696.00 99.0
695.00 99.0
694.00 99.0
693.00 99.0
692.00 99.0
691.00 99.0
690.00 99.0
689.00 99.0
688.00 99.1
687.00 99.1
686.00 99.1
685.00 99.0
684.00 99.0
683.00 99.0
682.00 99.0
681.00 99.0
680.00 99.0
679.00 99.1
678.00 99.1
677.00 99.1
676.00 99.1
675.00 99.1
674.00 99.1
673.00 99.1
672.00 99.1
671.00 99.1
670.00 99.1
669.00 99.1
668.00 99.1
667.00 99.1
666.00 99.1
665.00 99.1
664.00 99.0
663.00 99.0
662.00 99.0
661.00 99.0
660.00 99.0
659.00 99.0
658.00 99.0
657.00 99.0
656.00 99.0
655.00 99.0
654.00 99.0
653.00 99.0
652.00 99.0
651.00 99.0
650.00 99.0
649.00 99.0
648.00 99.0
647.00 99.0
646.00 99.0
645.00 99.0
644.00 99.0
643.00 99.0
642.00 99.0
641.00 99.0
640.00 99.0
639.00 99.0
638.00 99.0
637.00 99.0
636.00 99.0
635.00 99.0
634.00 99.0
633.00 99.0
632.00 99.0
631.00 99.0
630.00 99.0
629.00 99.0
628.00 99.0
627.00 99.0
626.00 99.0
625.00 99.0
624.00 99.0
623.00 99.0
622.00 99.0
621.00 99.0
620.00 99.0
619.00 99.0
618.00 99.0
617.00 99.0
616.00 99.0
615.00 99.0
614.00 99.0
613.00 99.0
612.00 99.0
611.00 99.0
610.00 99.0
609.00 99.0
608.00 99.0
607.00 99.0
606.00 99.0
605.00 99.0
604.00 99.0
603.00 99.0
602.00 99.0
601.00 99.0
600.00 99.0
599.00 99.0
598.00 99.0
597.00 99.0
596.00 99.0
595.00 99.0
594.00 99.0
593.00 99.0
592.00 99.0
591.00 99.0
590.00 99.0
589.00 99.0
588.00 99.0
587.00 99.0
586.00 99.0
585.00 98.9
584.00 98.9
583.00 98.9
582.00 98.9
581.00 98.9
580.00 98.9
579.00 98.9
578.00 98.9
577.00 98.9
576.00 98.9
575.00 98.9
574.00 98.9
573.00 98.9
572.00 98.9
571.00 98.9
570.00 98.9
569.00 98.9
568.00 98.9
567.00 98.9
566.00 98.9
565.00 98.9
564.00 98.9
563.00 98.9
562.00 98.9
561.00 98.9
560.00 98.9
559.00 98.9
558.00 98.9
557.00 98.9
556.00 98.9
555.00 98.9
554.00 98.9
553.00 98.9
552.00 98.9
551.00 98.8
550.00 98.8
549.00 98.9
548.00 98.9
547.00 98.9
546.00 98.9
545.00 98.9
544.00 98.9
543.00 98.9
542.00 98.8
541.00 98.8
540.00 98.8
539.00 98.8
538.00 98.8
537.00 98.8
536.00 98.8
535.00 98.8
534.00 98.8
533.00 98.8
532.00 98.8
531.00 98.8
530.00 98.8
529.00 98.8
528.00 98.8
527.00 98.8
526.00 98.8
525.00 98.8
524.00 98.8
523.00 98.8
522.00 98.8
521.00 98.8
520.00 98.8
519.00 98.8
518.00 98.8
517.00 98.8
516.00 98.8
515.00 98.7
514.00 98.7
513.00 98.7
512.00 98.8
511.00 98.7
510.00 98.7
509.00 98.7
508.00 98.7
507.00 98.7
506.00 98.7
505.00 98.7
504.00 98.7
503.00 98.7
502.00 98.7
501.00 98.7
500.00 98.7
499.00 98.7
498.00 98.7
497.00 98.7
496.00 98.7
495.00 98.7
494.00 98.7
493.00 98.7
492.00 98.7
491.00 98.7
490.00 98.7
489.00 98.7
488.00 98.7
487.00 98.7
486.00 98.7
485.00 98.7
484.00 98.7
483.00 98.7
482.00 98.6
481.00 98.6
480.00 98.6
479.00 98.6
478.00 98.6
477.00 98.6
476.00 98.6
475.00 98.6
474.00 98.6
473.00 98.6
472.00 98.6
471.00 98.6
470.00 98.6
469.00 98.6
468.00 98.6
467.00 98.6
466.00 98.6
465.00 98.6
464.00 98.6
463.00 98.6
462.00 98.6
461.00 98.6
460.00 98.6
459.00 98.6
458.00 98.6
457.00 98.6
456.00 98.6
455.00 98.6
454.00 98.6
453.00 98.5
452.00 98.5
451.00 98.5
450.00 98.5
449.00 98.5
448.00 98.5
447.00 98.5
446.00 98.5
445.00 98.5
444.00 98.5
443.00 98.5
442.00 98.5
441.00 98.5
440.00 98.5
439.00 98.5
438.00 98.5
437.00 98.5
436.00 98.5
435.00 98.5
434.00 98.5
433.00 98.5
432.00 98.5
431.00 98.5
430.00 98.5
429.00 98.5
428.00 98.5
427.00 98.4
426.00 98.4
425.00 98.4
424.00 98.4
423.00 98.4
422.00 98.4
421.00 98.4
420.00 98.4
419.00 98.4
418.00 98.4
417.00 98.4
416.00 98.4
415.00 98.4
414.00 98.4
413.00 98.4
412.00 98.4
411.00 98.4
410.00 98.4
409.00 98.3
408.00 98.3
407.00 98.3
406.00 98.3
405.00 98.3
404.00 98.3
403.00 98.3
402.00 98.3
401.00 98.3
400.00 98.3
399.00 98.3
398.00 98.3
397.00 98.3
396.00 98.3
395.00 98.3
394.00 98.3
393.00 98.3
392.00 98.3
391.00 98.3
390.00 98.3
389.00 98.3
388.00 98.3
387.00 98.3
386.00 98.3
385.00 98.3
384.00 98.3
383.00 98.3
382.00 98.2
381.00 98.2
380.00 98.2
379.00 98.2
378.00 98.2
377.00 98.2
376.00 98.2
375.00 98.2
374.00 98.2
373.00 98.2
372.00 98.2
371.00 98.2
370.00 98.2
369.00 98.2
368.00 98.2
367.00 98.2
366.00 98.2
365.00 98.2
364.00 98.2
363.00 98.1
362.00 98.1
361.00 98.1
360.00 98.1
359.00 98.1
358.00 98.1
357.00 98.1
356.00 98.1
355.00 98.1
354.00 98.1
353.00 98.1
352.00 98.1
351.00 98.1
350.00 98.1
349.00 98.0
348.00 98.0
347.00 98.0
346.00 98.0
345.00 98.0
344.00 98.0
343.00 98.0
342.00 98.0
341.00 98.0
340.00 98.0
339.00 97.9
338.00 98.0
337.00 98.0
336.00 98.0
335.00 97.9
334.00 97.9
333.00 97.9
332.00 97.9
331.00 97.9
330.00 97.9
329.00 97.9
328.00 97.9
327.00 97.9
326.00 97.9
325.00 97.9
324.00 97.9
323.00 97.9
322.00 97.9
321.00 97.9
320.00 97.8
319.00 97.8
318.00 97.8
317.00 97.9
316.00 97.9
315.00 97.8
314.00 97.8
313.00 97.7
312.00 97.7
311.00 97.7
310.00 97.7
309.00 97.7
308.00 97.7
307.00 97.7
306.00 97.7
305.00 97.7
304.00 97.7
303.00 97.7
302.00 97.7
301.00 97.7
300.00 97.7
299.00 97.6
298.00 97.6
297.00 97.6
296.00 97.6
295.00 97.6
294.00 97.5
293.00 97.5
292.00 97.5
291.00 97.5
290.00 97.5
289.00 97.4
288.00 97.4
287.00 97.4
286.00 97.4
285.00 97.4
284.00 97.3
283.00 97.3
282.00 97.3
281.00 97.3
280.00 97.2
279.00 96.9
278.00 96.5
277.00 95.9
276.00 95.3
275.00 94.7
274.00 94.5
273.00 94.6
272.00 95.0
271.00 95.5
270.00 96.1
269.00 96.5
268.00 96.7
267.00 96.6
266.00 96.5
265.00 96.3
264.00 96.3
263.00 96.2
262.00 96.1
261.00 96.1
260.00 96.0
259.00 95.9
258.00 95.8
257.00 95.7
256.00 95.6
255.00 95.5
254.00 95.4
253.00 95.3
252.00 95.2
251.00 95.1
250.00 95.0
249.00 94.9
248.00 94.7
247.00 94.6
246.00 94.4
245.00 94.3
244.00 94.2
243.00 94.0
242.00 93.9
241.00 93.7
240.00 93.5
239.00 93.2
238.00 92.9
237.00 92.6
236.00 92.2
235.00 91.8
234.00 91.3
233.00 90.8
232.00 90.3
231.00 89.7
230.00 89.0
229.00 88.2
228.00 87.4
227.00 86.5
226.00 85.6
225.00 84.6
224.00 83.6
223.00 82.6
222.00 81.5
221.00 80.4
220.00 79.3
219.00 78.1
218.00 76.9
217.00 75.7
216.00 74.6
215.00 73.5
214.00 72.5
213.00 71.5
212.00 70.6
211.00 69.7
210.00 68.9
209.00 68.1
208.00 67.4
207.00 66.6
206.00 66.0
205.00 65.2
204.00 64.2
203.00 63.1
202.00 62.0
201.00 60.9
200.00 60.1
##END=
